File: Data/LSVN0583_CrystalPenner.csv
Pixel,Wavelength(nm),Intensity(Counts)
1,145.5,1667
14,148.2,1660
27,151,1678
40,153.7,1692
53,156.4,1585
66,159.2,1557
79,161.9,1635
92,164.7,1667
105,167.4,1671
118,170.1,1753
131,172.9,1643
144,175.6,1677
157,178.4,1665
170,181.2,1684
183,183.9,1629
196,186.7,1627
209,189.5,1612
222,192.2,1596
235,195,1621
248,197.8,1684
261,200.5,1629
274,203.3,1640
287,206.1,1592
300,208.9,1568
313,211.7,1737
326,214.5,1649
339,217.3,1691
352,220,1697
365,222.8,1653
378,225.6,1597
391,228.4,1665
404,231.2,1625
417,234,1633
430,236.9,1639
443,239.7,1621
456,242.5,1738
469,245.3,1669
482,248.1,1678
495,250.9,1537
508,253.8,1566
521,256.6,1597
534,259.4,1623
547,262.2,1616
560,265.1,1483
573,267.9,1553
586,270.7,1583
599,273.6,1657
612,276.4,1675
625,279.3,1618
638,282.1,1660
651,285,1611
664,287.8,1570
677,290.7,1653
690,293.5,1528
703,296.4,1597
716,299.2,1571
729,302.1,1641
742,305,1606
755,307.8,1671
768,310.7,1596
781,313.6,1634
794,316.5,1675
807,319.3,1616
820,322.2,1569
833,325.1,1555
846,328,1643
859,330.9,1601
872,333.8,1629
885,336.6,1651
898,339.5,1670
911,342.4,1613
924,345.3,1563
937,348.2,1536
950,351.1,1648
963,354,1551
976,356.9,1666
989,359.8,1611
1002,362.8,1671
1015,365.7,1555
1028,368.6,1707
1041,371.5,1631
1054,374.4,1540
1067,377.3,1672
1080,380.3,1620
1093,383.2,1633
1106,386.1,1708
1119,389.1,1577
1132,392,1581
1145,394.9,1617
1158,397.9,1648
1171,400.8,1657
1184,403.7,1677
1197,406.7,1701
1210,409.6,1658
1223,412.6,1791
1236,415.5,1757
1249,418.5,2164
1262,421.4,2457
1275,424.4,3121
1288,427.3,4075
1301,430.3,5773
1314,433.3,8617
1327,436.2,12772
1340,439.2,19478
1353,442.2,29597
1366,445.1,44111
1379,448.1,58486
1392,451.1,65535
1405,454.1,60833
1418,457,49631
1431,460,40195
1444,463,34572
1457,466,30360
1470,469,25317
1483,472,20362
1496,475,17170
1509,478,15304
1522,481,14369
1535,484,14269
1548,487,14194
1561,490,14757
1574,493,15745
1587,496,17553
1600,499,18625
1613,502,20569
1626,505,22420
1639,508,24311
1652,511,26613
1665,514,28857
1678,517.1,32191
1691,520.1,34139
1704,523.1,36354
1717,526.1,37638
1730,529.2,38875
1743,532.2,39210
1756,535.2,40171
1769,538.3,40505
1782,541.3,40188
1795,544.3,40244
1808,547.4,39432
1821,550.4,39724
1834,553.5,39934
1847,556.5,40306
1860,559.5,41101
1873,562.6,41081
1886,565.6,41790
1899,568.7,42234
1912,571.7,41788
1925,574.8,41527
1938,577.9,40715
1951,580.9,39946
1964,584,38711
1977,587,37085
1990,590.1,35764
2003,593.2,34569
2016,596.3,33281
2029,599.3,32110
2042,602.4,30815
2055,605.5,29621
2068,608.5,28436
2081,611.6,26592
2094,614.7,24747
2107,617.8,23404
2120,620.9,21924
2133,624,19997
2146,627,18549
2159,630.1,17199
2172,633.2,15709
2185,636.3,14763
2198,639.4,14246
2211,642.5,13715
2224,645.6,12610
2237,648.7,11264
2250,651.8,10478
2263,654.9,9366
2276,658,8229
2289,661.1,7528
2302,664.2,6977
2315,667.3,6260
2328,670.4,5661
2341,673.6,5249
2354,676.7,4771
2367,679.8,4373
2380,682.9,4025
2393,686,3922
2406,689.2,3711
2419,692.3,3453
2432,695.4,3472
2445,698.5,3342
2458,701.7,3339
2471,704.8,3523
2484,707.9,3676
2497,711.1,3812
2510,714.2,4133
2523,717.3,4422
2536,720.5,4840
2549,723.6,5349
2562,726.8,5913
2575,729.9,6462
2588,733,7109
2601,736.2,8071
2614,739.3,9534
2627,742.5,11058
2640,745.6,13191
2653,748.8,15634
2666,751.9,18072
2679,755.1,19349
2692,758.3,18247
2705,761.4,15893
2718,764.6,12684
2731,767.7,9614
2744,770.9,7138
2757,774.1,5238
2770,777.2,4027
2783,780.4,3325
2796,783.6,2784
2809,786.8,2622
2822,789.9,2458
2835,793.1,2353
2848,796.3,2305
2861,799.5,2311
2874,802.6,2371
2887,805.8,2429
2900,809,2519
2913,812.2,2619
2926,815.4,2900
2939,818.6,3015
2952,821.7,3326
2965,824.9,3580
2978,828.1,3757
2991,831.3,4221
3004,834.5,4487
3017,837.7,4829
3030,840.9,5286
3043,844.1,5358
3056,847.3,5430
3069,850.5,5031
3082,853.7,4517
3095,856.9,4001
3108,860.1,3267
3121,863.3,2790
3134,866.5,2386
3147,869.7,2215
3160,873,2002
3173,876.2,1844
3186,879.4,1779
3199,882.6,1750
3212,885.8,1632
3225,889,1623
3238,892.3,1565
3251,895.5,1549
3264,898.7,1619
3277,901.9,1548
3290,905.2,1546
3303,908.4,1581
3316,911.6,1598
3329,914.8,1674
3342,918.1,1680
3355,921.3,1775
3368,924.5,1701
3381,927.8,1792
3394,931,1819
3407,934.2,1862
3420,937.5,1954
3433,940.7,2043
3446,944,2023
3459,947.2,2207
3472,950.5,2202
3485,953.7,2225
3498,956.9,2316
3511,960.2,2156
3524,963.4,2010
3537,966.7,1825
3550,969.9,1819
3563,973.2,1666
3576,976.4,1588
3589,979.7,1665
3602,983,1663
3615,986.2,1615
3628,989.5,1536
3641,992.7,1647
3648,994.5,1525